#  GeoPath WELLPLAN for Windows / Compass Survey Export
#  ====================================================
#
#
# $Wellbore_name: PR05
#
# $Well_name: PR05
# $Status_of_Well: EXISTING
#
# $Well_northing:       7623750.00 [m]
# $Well_easting:         185250.00 [m]
# $Derrick_elevation:         0.00 [m]
#
#===============================
#  AHD   Inclination   Azimuth
# $Units: [m]    [deg]    [deg]
#===============================
     0.00     0.00   177.10
   750.00     0.00   177.10
   780.00     3.00   177.10
   810.00     6.00   177.10
   840.00     9.00   177.10
   870.00    12.00   177.10
   900.00    15.00   177.10
   930.00    18.00   177.10
   960.00    21.00   177.10
   990.00    24.00   177.10
  1020.00    27.00   177.10
  1050.00    30.00   177.10
  1080.00    33.00   177.10
  1110.00    36.00   177.10
  1140.00    39.00   177.10
  1150.00    40.00   177.10
  2066.02    40.00   177.10
  2070.00    40.73   177.10
  2100.00    46.23   177.08
  2130.00    51.73   177.07
  2160.00    57.23   177.06
  2190.00    62.73   177.05
  2220.00    68.23   177.04
  2250.00    73.73   177.03
  2280.00    79.23   177.02
  2310.00    84.73   177.01
  2329.99    88.39   177.01
  2924.41    88.39   177.01
  2940.00    88.24   174.93
  2970.00    87.94   170.94
  3000.00    87.66   166.95
  3030.00    87.38   162.96
  3060.00    87.12   158.96
  3090.00    86.87   154.96
  3120.00    86.64   150.96
  3150.00    86.42   146.96
  3180.00    86.22   142.96
  3210.00    86.04   138.95
  3240.00    85.88   134.95
  3270.00    85.74   130.94
  3300.00    85.62   126.93
  3314.42    85.57   125.00
  3324.42    85.57   125.00
  3330.00    85.57   124.81
  3360.00    85.56   123.81
  3390.00    85.56   122.81
  3420.00    85.55   121.80
  3450.00    85.55   120.80
  3480.00    85.55   119.80
  3510.00    85.55   118.80
  3540.00    85.55   117.79
  3570.00    85.55   116.79
  3600.00    85.56   115.79
  3630.00    85.56   114.78
  3660.00    85.57   113.78
  3688.09    85.58   112.84
  4152.40    85.58   112.84
