#  GeoPath WELLPLAN for Windows / Compass Survey Export
#  ====================================================
#
#
# $Wellbore_name: PR08
#
# $Well_name: PR08
# $Status_of_Well: EXISTING
#
# $Well_northing:       7623750.00 [m]
# $Well_easting:         185250.00 [m]
# $Derrick_elevation:         0.00 [m]
#
#===============================
#  AHD   Inclination   Azimuth
# $Units: [m]    [deg]    [deg]
#===============================
     0.00     0.00   148.10
   750.00     0.00   148.10
   780.00     3.00   148.10
   810.00     6.00   148.10
   840.00     9.00   148.10
   870.00    12.00   148.10
   900.00    15.00   148.10
   930.00    18.00   148.10
   960.00    21.00   148.10
   990.00    24.00   148.10
  1020.00    27.00   148.10
  1050.00    30.00   148.10
  1080.00    33.00   148.10
  1110.00    36.00   148.10
  1140.00    39.00   148.10
  1170.00    42.00   148.10
  1200.00    45.00   148.10
  1230.00    48.00   148.10
  1260.00    51.00   148.10
  1280.00    53.00   148.10
  2430.55    53.00   148.10
  2460.00    55.49   144.35
  2490.00    58.13   140.77
  2520.00    60.87   137.38
  2550.00    63.69   134.18
  2580.00    66.58   131.13
  2610.00    69.52   128.21
  2640.00    72.51   125.40
  2670.00    75.54   122.68
  2700.00    78.60   120.03
  2730.00    81.68   117.45
  2760.00    84.78   114.90
  2782.37    87.10   113.02
  3542.37    87.10   113.02
  3556.07    88.02   112.00
  3566.07    88.02   112.00
  3570.00    88.02   112.13
  3600.00    88.02   113.13
  3630.00    88.01   114.13
  3660.00    88.01   115.13
  3690.00    88.01   116.13
  3720.00    88.01   117.13
  3750.00    88.01   118.13
  3780.00    88.01   119.14
  3810.00    88.01   120.14
  3840.00    88.01   121.14
  3870.00    88.01   122.14
  3900.00    88.01   123.14
  3930.00    88.01   124.14
  3960.00    88.02   125.14
  3990.00    88.02   126.14
  4020.00    88.03   127.14
  4050.00    88.03   128.14
  4080.00    88.04   129.14
  4110.00    88.04   130.14
  4139.06    88.05   131.11
  4320.70    88.05   131.11
