#  GeoPath WELLPLAN for Windows / Compass Survey Export
#  ====================================================
#
#
# $Wellbore_name: PR09
#
# $Well_name: PR09
# $Status_of_Well: EXISTING
#
# $Well_northing:       7623750.00 [m]
# $Well_easting:         185250.00 [m]
# $Derrick_elevation:         0.00 [m]
#
#===============================
#  AHD   Inclination   Azimuth
# $Units: [m]    [deg]    [deg]
#===============================
     0.00     0.00   148.10
   750.00     0.00   148.10
   780.00     3.00   148.10
   810.00     6.00   148.10
   840.00     9.00   148.10
   870.00    12.00   148.10
   900.00    15.00   148.10
   930.00    18.00   148.10
   960.00    21.00   148.10
   990.00    24.00   148.10
  1020.00    27.00   148.10
  1050.00    30.00   148.10
  1080.00    33.00   148.10
  1110.00    36.00   148.10
  1140.00    39.00   148.10
  1170.00    42.00   148.10
  1200.00    45.00   148.10
  1230.00    48.00   148.10
  1260.00    51.00   148.10
  1280.00    53.00   148.10
  2430.55    53.00   148.10
  2460.00    56.93   148.11
  2490.00    60.93   148.13
  2520.00    64.93   148.14
  2550.00    68.93   148.15
  2580.00    72.93   148.16
  2610.00    76.93   148.17
  2640.00    80.93   148.18
  2669.53    84.86   148.19
  3427.37    84.86   148.19
  3450.00    85.34   145.97
  3480.00    85.98   143.03
  3510.00    86.63   140.09
  3540.00    87.28   137.16
  3570.00    87.95   134.23
  3600.00    88.62   131.31
  3613.43    88.92   130.00
  3623.43    88.92   130.00
  3630.00    88.92   129.78
  3660.00    88.92   128.78
  3690.00    88.92   127.78
  3720.00    88.92   126.78
  3750.00    88.91   125.78
  3780.00    88.91   124.78
  3810.00    88.91   123.78
  3840.00    88.91   122.78
  3870.00    88.91   121.78
  3900.00    88.91   120.78
  3930.00    88.92   119.78
  3960.00    88.92   118.78
  3990.00    88.92   117.78
  4020.00    88.92   116.78
  4050.00    88.92   115.78
  4080.00    88.93   114.78
  4102.36    88.93   114.03
  4420.74    88.93   114.03
